Well Name               : F03-2
UWI                     : Unknown
Kelly Bushing Elevation : 30 m
Surface Elevation       : 0 m
X : 619101.000000 m  Y : 6089491.000000 m
First Sample at         : 0.000000 ms
Last Sample at          : 2109.600098 ms
Sample Rate             : 4.000000 ms
Number of Samples       : 528

Column 1 : Time ms
Column 2 : Check Shot (Check Shot) - Units : ms (Two Way time)
Column 3 : P-Impedance (P-Impedance) - Units : (m/s)*(g/cc)
Column 4 : Computed Impedance (P-Impedance) - Units : (m/s)*(kg/m3)
Column 5 : Computed Reflectivity (P-Reflectivity) - Units : unitless
    0.0000       -999.2500       -999.2500       -999.2500       -999.2500
    4.0000          0.0041      3904120.0000      3904170.2500          0.0000
    8.0000          0.0082      3906148.2500      3906294.5000          0.0000
   12.0000          0.0123      3908165.2500      3908424.5000          0.0000
   16.0000          0.0165      3910210.5000      3910550.7500          0.0000
   20.0000          0.0206      3912232.2500      3912683.7500          0.0000
   24.0000          0.0247      3914264.2500      3914813.7500          0.0000
   28.0000          0.0288      3916307.2500      3916948.2500          0.0000
   32.0000          0.0329      3918344.0000      3919084.7500          0.0000
   36.0000          0.0370      3920379.7500      3921217.7500          0.0000
   40.0000          0.0412      3922428.0000      3923355.0000          0.0000
   44.0000          0.0453      3924467.0000      3925494.7500          0.0000
   48.0000          0.0494      3926517.0000      3927637.7500          0.0000
   52.0000          0.0535      3928559.0000      3929778.0000          0.0000
   56.0000          0.0576      3930625.0000      3931927.7500          0.0000
   60.0000          0.0617      3932666.2500      3934067.2500          0.0000
   64.0000          0.0658      3934725.5000      3936224.2500          0.0000
   68.0000          0.0700      3936787.2500      3938365.2500          0.0000
   72.0000          0.0741      3938843.7500      3940525.5000          0.0000
   76.0000          0.0782      3940904.5000      3942669.7500          0.0000
   80.0000          0.0823      3942978.2500      3944833.2500          0.0000
   84.0000          0.0864      3945040.2500      3946981.5000          0.0000
   88.0000          0.0905      3947104.5000      3949145.5000          0.0000
   92.0000          0.0947      3949188.2500      3951301.0000          0.0000
   96.0000          0.0988      3951256.7500      3953463.7500          0.0000
  100.0000          0.1029      3953328.0000      3955627.0000          0.0000
  104.0000          0.1070      3955416.0000      3957789.2500          0.0000
  108.0000          0.1111      3957493.7500      3959959.2500          0.0000
  112.0000          0.1152      3959568.2500      3962114.0000          0.0000
  116.0000          0.1193      3961660.7500      3964298.2500          0.0000
  120.0000          0.1235      3963743.7500      3966451.7500          0.0000
  124.0000          0.1276      3965830.5000      3968643.7500          0.0000
  128.0000          0.1317      3967931.7500      3970800.2500          0.0000
  132.0000          0.1358      3970021.5000      3972991.7500          0.0000
  136.0000          0.1399      3972113.5000      3975155.2500          0.0000
  140.0000          0.1440      3974223.2500      3977348.2500          0.0000
  144.0000          0.1482      3976319.7500      3979516.5000          0.0000
  148.0000          0.1523      3978418.0000      3981710.0000          0.0000
  152.0000          0.1564      3980535.2500      3983885.0000          0.0000
  156.0000          0.1605      3982638.2500      3986077.7500          0.0000
  160.0000          0.1646      3984743.5000      3988260.5000          0.0000
  164.0000          0.1687      3986868.2500      3990453.2500          0.0000
  168.0000          0.1728      3988969.5000      3992642.0000          0.0000
  172.0000          0.1770      3991099.0000      3994827.7500          0.0000
  176.0000          0.1811      3993213.5000      3997030.2500          0.0000
  180.0000          0.1852      3995330.2500      3999215.2500          0.0000
  184.0000          0.1893      3997459.5000      4001426.0000          0.0000
  188.0000          0.1934      3999587.7500      4003614.2500          0.0000
  192.0000          0.1975      4001711.5000      4005823.7500          0.0000
  196.0000          0.2017      4003849.5000      4008019.7500          0.0000
  200.0000          0.2058      4005983.5000      4010228.7500          0.0000
  204.0000          0.2099      4008113.7500      4012431.5000          0.0000
  208.0000          0.2140      4010261.0000      4014640.2500          0.0000
  212.0000          0.2181      4012399.2500      4016850.5000          0.0000
  216.0000          0.2222      4014536.7500      4019058.7500          0.0000
  220.0000          0.2264      4016695.0000      4021276.2500          0.0000
  224.0000          0.2305      4018829.0000      4023484.2500          0.0000
  228.0000          0.2346      4020993.2500      4025708.2500          0.0000
  232.0000          0.2387      4023139.0000      4027916.7500          0.0000
  236.0000          0.2428      4025295.2500      4030140.0000          0.0000
  240.0000          0.2469      4027456.5000      4032355.0000          0.0000
  244.0000          0.2510      4029611.7500      4034586.0000          0.0000
  248.0000          0.2552      4031771.5000      4036801.5000          0.0000
  252.0000          0.2593      4033944.7500      4039037.7500          0.0000
  256.0000          0.2634      4036106.2500      4041255.7500          0.0000
  260.0000          0.2675      4038278.2500      4043496.2500          0.0000
  264.0000          0.2716      4040454.2500      4045718.2500          0.0000
  268.0000          0.2757      4042622.7500      4047958.7500          0.0000
  272.0000          0.2799      4044807.5000      4050189.0000          0.0000
  276.0000          0.2840      4046985.2500      4052427.7500          0.0000
  280.0000          0.2881      4049162.2500      4054666.0000          0.0000
  284.0000          0.2922      4051357.7500      4056904.2500          0.0000
  288.0000          0.2963      4053530.2500      4059149.5000          0.0000
  292.0000          0.3004      4055737.0000      4061388.0000          0.0000
  296.0000          0.3045      4057917.2500      4063640.0000          0.0000
  300.0000          0.3087      4060117.0000      4065878.2500          0.0000
  304.0000          0.3128      4062314.2500      4068137.7500          0.0000
  308.0000          0.3169      4064514.2500      4249500.0000          0.0013
  312.0000          0.3210      4066714.2500      4058009.7500         -0.0018
  316.0000          0.3251      4068918.5000      3962789.2500         -0.0005
  320.0000          0.3292      4286884.0000      3901804.5000          0.0000
  324.0000          0.3334      3990285.7500      3919416.0000         -0.0001
  328.0000          0.3375      3924024.5000      3989452.5000          0.0004
  332.0000          0.3416      3908382.7500      3933084.2500         -0.0012
  336.0000          0.3457      3934131.0000      3783596.2500          0.0001
  340.0000          0.3498      3981187.0000      3905128.2500          0.0018
  344.0000          0.3539      3904854.5000      4206043.0000          0.0005
  348.0000          0.3580      3784473.2500      4157477.2500          0.0005
  352.0000          0.3622      3911235.5000      4157467.2500         -0.0010
  356.0000          0.3663      4204506.0000      4239986.5000          0.0007
  360.0000          0.3704      4155882.2500      4148185.2500         -0.0005
  364.0000          0.3745      4156697.7500      4064919.2500         -0.0001
  368.0000          0.3786      4234931.0000      4037255.2500         -0.0002
  372.0000          0.3827      4144342.2500      4002068.2500          0.0000
  376.0000          0.3869      4064650.7500      3981574.5000         -0.0007
  380.0000          0.3910      4036445.7500      4123970.5000          0.0024
  384.0000          0.3951      4005607.7500      4075169.5000         -0.0004
  388.0000          0.3992      3992544.7500      4078014.5000         -0.0014
  392.0000          0.4033      4076430.0000      4073520.2500          0.0003
  396.0000          0.4074      4088093.2500      4251934.0000          0.0001
  400.0000          0.4115      4084020.0000      4018364.7500         -0.0009
  404.0000          0.4157      4067169.5000      3917513.7500         -0.0012
  408.0000          0.4198      4196057.0000      3655054.2500          0.0008
  412.0000          0.4239      4072776.0000      4024254.2500          0.0022
  416.0000          0.4280      3942437.2500      4128095.2500         -0.0014
  420.0000          0.4321      3757397.7500      3866307.5000         -0.0014
  424.0000          0.4362      3775729.0000      3929288.5000          0.0010
  428.0000          0.4404      4185398.5000      3931388.2500          0.0003
  432.0000          0.4445      3957542.5000      4043778.0000          0.0003
  436.0000          0.4486      3913588.7500      4019489.7500          0.0000
  440.0000          0.4527      3857134.0000      4043960.7500         -0.0012
  444.0000          0.4568      4003393.2500      4175415.0000          0.0016
  448.0000          0.4609      4078550.0000      3854501.2500         -0.0008
  452.0000          0.4650      4002373.0000      3679264.5000         -0.0012
  456.0000          0.4692      4070759.5000      4013604.2500          0.0004
  460.0000          0.4733      4101533.7500      3835588.5000          0.0010
  464.0000          0.4774      3748920.2500      4099994.0000          0.0000
  468.0000          0.4815      3689215.5000      3846619.7500         -0.0023
  472.0000          0.4856      4042233.2500      3777287.0000          0.0020
  476.0000          0.4895      3858109.7500      3924372.5000         -0.0025
  480.0000          0.4935      4092411.7500      3690255.7500          0.0044
  484.0000          0.4974      3810767.5000      4093025.5000         -0.0001
  488.0000          0.5014      3781439.0000      4204495.0000         -0.0009
  492.0000          0.5053      3943959.2500      4190898.2500         -0.0004
  496.0000          0.5093      3560381.2500      3911915.2500          0.0006
  500.0000          0.5132      4124714.7500      3965244.0000         -0.0009
  504.0000          0.5171      4184652.7500      3864155.7500         -0.0004
  508.0000          0.5211      4143906.7500      4026213.5000          0.0002
  512.0000          0.5250      3961416.5000      3976827.5000          0.0004
  516.0000          0.5289      3983085.0000      4050439.5000          0.0006
  520.0000          0.5328      3897641.5000      4072449.0000         -0.0004
  524.0000          0.5368      3950396.7500      4062799.5000          0.0002
  528.0000          0.5407      4022187.0000      4074056.0000         -0.0005
  532.0000          0.5446      4022616.0000      3809933.2500         -0.0003
  536.0000          0.5485      4039239.2500      3802824.7500          0.0010
  540.0000          0.5525      4026669.2500      3951356.2500         -0.0009
  544.0000          0.5564      4047001.5000      3968733.5000          0.0002
  548.0000          0.5603      4055644.2500      4094797.7500          0.0020
  552.0000          0.5642      3684129.7500      4362313.5000         -0.0008
  556.0000          0.5683      3933964.5000      4139822.5000         -0.0008
  560.0000          0.5725      3918966.7500      4100543.7500          0.0004
  564.0000          0.5767      3985426.2500      4155250.7500         -0.0001
  568.0000          0.5809      4212092.0000      4167742.7500          0.0015
  572.0000          0.5850      4287246.5000      4399462.5000         -0.0010
  576.0000          0.5892      4112994.2500      4357943.0000          0.0010
  580.0000          0.5934      4122541.5000      4514015.5000         -0.0003
  584.0000          0.5975      4155648.7500      4647567.5000         -0.0013
  588.0000          0.6016      4229718.5000      4090465.2500         -0.0002
  592.0000          0.6057      4355090.5000      4307132.0000          0.0016
  596.0000          0.6098      4438531.0000      4421091.0000         -0.0002
  600.0000          0.6139      4635404.0000      4443960.5000          0.0001
  604.0000          0.6178      4264702.5000      4242265.0000         -0.0008
  608.0000          0.6216      4215339.0000      4239306.5000          0.0004
  612.0000          0.6255      4371216.0000      4385283.0000         -0.0008
  616.0000          0.6294      4434883.0000      4515803.0000          0.0021
  620.0000          0.6333      4343273.5000      4613807.0000         -0.0017
  624.0000          0.6372      4214406.0000      4108682.2500         -0.0007
  628.0000          0.6411      4392820.5000      4200773.5000         -0.0006
  632.0000          0.6450      4313847.0000      4102137.0000          0.0020
  636.0000          0.6488      4739392.0000      4279606.5000         -0.0005
  640.0000          0.6527      4190810.7500      4468719.5000          0.0011
  644.0000          0.6566      4171929.5000      4602366.0000          0.0006
  648.0000          0.6605      4041902.0000      4559365.5000          0.0009
  652.0000          0.6644      4272171.5000      4749682.0000         -0.0010
  656.0000          0.6683      4392533.0000      4577427.0000         -0.0003
  660.0000          0.6722      4593991.5000      4575509.0000          0.0004
  664.0000          0.6760      4555234.5000      4633982.0000         -0.0001
  668.0000          0.6799      4735432.5000      4645456.5000         -0.0004
  672.0000          0.6838      4577050.5000      4617639.0000          0.0001
  676.0000          0.6877      4585082.0000      4614275.0000          0.0001
  680.0000          0.6916      4635153.0000      4607178.5000          0.0005
  684.0000          0.6955      4646506.5000      4620986.0000         -0.0003
  688.0000          0.6994      4592145.0000      4474320.5000         -0.0007
  692.0000          0.7033      4630059.0000      4555760.0000          0.0003
  696.0000          0.7072      4607911.0000      4539818.0000         -0.0007
  700.0000          0.7111      4552352.0000      4534346.5000          0.0012
  704.0000          0.7150      4502362.5000      4587262.0000         -0.0011
  708.0000          0.7189      4557223.5000      4590513.5000          0.0005
  712.0000          0.7228      4519197.5000      4607160.5000          0.0008
  716.0000          0.7268      4587145.5000      4659382.0000         -0.0008
  720.0000          0.7307      4575631.0000      4610813.0000          0.0009
  724.0000          0.7346      4591006.0000      4705240.5000          0.0002
  728.0000          0.7385      4671875.0000      4591717.5000         -0.0000
  732.0000          0.7424      4619250.5000      4689698.0000         -0.0006
  736.0000          0.7463      4694132.5000      4581588.0000          0.0003
  740.0000          0.7503      4592721.0000      4660857.5000         -0.0003
  744.0000          0.7542      4658659.0000      4697933.5000          0.0001
  748.0000          0.7581      4615335.0000      4733337.0000         -0.0002
  752.0000          0.7620      4666596.0000      4629105.0000         -0.0002
  756.0000          0.7659      4711736.5000      4709332.5000          0.0012
  760.0000          0.7698      4678404.0000      4760499.5000         -0.0002
  764.0000          0.7738      4654006.5000      4762075.0000          0.0003
  768.0000          0.7777      4752666.0000      4706287.5000         -0.0008
  772.0000          0.7816      4769627.5000      4760453.5000          0.0001
  776.0000          0.7855      4716565.0000      4782634.5000         -0.0005
  780.0000          0.7894      4758689.5000      4833628.0000          0.0001
  784.0000          0.7933      4781815.0000      4746558.5000         -0.0005
  788.0000          0.7972      4837730.0000      4672475.5000         -0.0001
  792.0000          0.8012      4688668.0000      4569788.0000          0.0010
  796.0000          0.8051      4577472.0000      4605944.0000          0.0004
  800.0000          0.8090      4667583.0000      4591259.0000         -0.0008
  804.0000          0.8129      4578112.5000      4276787.5000         -0.0016
  808.0000          0.8168      4449374.0000      4699236.0000          0.0017
  812.0000          0.8207      4482001.0000      4645768.0000         -0.0002
  816.0000          0.8246      4641150.0000      4718580.5000          0.0008
  820.0000          0.8285      4687260.5000      4673712.5000         -0.0007
  824.0000          0.8324      4696644.5000      4727965.5000          0.0013
  828.0000          0.8363      4723508.0000      4846742.5000         -0.0003
  832.0000          0.8402      4845719.5000      4868815.5000         -0.0001
  836.0000          0.8441      4862942.0000      4881661.0000          0.0004
  840.0000          0.8480      4903944.5000      4883811.0000         -0.0007
  844.0000          0.8519      4875971.5000      4932259.0000          0.0004
  848.0000          0.8558      4923497.0000      4884365.5000          0.0001
  852.0000          0.8597      4879223.5000      4901191.0000         -0.0000
  856.0000          0.8636      4846969.5000      4818692.5000         -0.0003
  860.0000          0.8675      4819169.0000      4827013.5000          0.0008
  864.0000          0.8715      4890939.5000      4882311.5000         -0.0001
  868.0000          0.8754      4813270.5000      4819496.0000         -0.0009
  872.0000          0.8794      4853939.0000      4829835.5000          0.0021
  876.0000          0.8833      5212482.0000      5176610.5000         -0.0013
  880.0000          0.8873      4742999.0000      5001502.5000         -0.0006
  884.0000          0.8912      4730498.5000      4647984.0000         -0.0012
  888.0000          0.8952      4834698.5000      4812801.0000          0.0024
  892.0000          0.8991      4842287.0000      4824628.5000         -0.0014
  896.0000          0.9030      4780785.5000      4877178.0000          0.0008
  900.0000          0.9070      4903113.5000      4761655.0000         -0.0006
  904.0000          0.9109      5016560.5000      4911556.5000          0.0005
  908.0000          0.9149      4922258.0000      5030083.5000          0.0000
  912.0000          0.9188      4944152.0000      4980537.5000         -0.0002
  916.0000          0.9228      4942472.0000      4898932.0000          0.0004
  920.0000          0.9267      5027067.5000      4917922.0000         -0.0002
  924.0000          0.9307      5208660.5000      4917772.5000         -0.0006
  928.0000          0.9346      4741414.0000      5166075.5000          0.0034
  932.0000          0.9385      4905344.0000      5178108.5000         -0.0035
  936.0000          0.9425      4895561.0000      4732649.0000         -0.0000
  940.0000          0.9464      5156010.0000      4928938.0000         -0.0001
  944.0000          0.9503      5178509.5000      4885053.5000          0.0011
  948.0000          0.9543      5122710.0000      5036901.0000          0.0011
  952.0000          0.9582      4962169.5000      5231117.0000          0.0004
  956.0000          0.9621      4954196.0000      5172009.0000         -0.0016
  960.0000          0.9661      5030412.5000      5124134.5000          0.0005
  964.0000          0.9700      5128938.5000      4903909.5000         -0.0013
  968.0000          0.9740      5240410.5000      4961502.0000          0.0012
  972.0000          0.9779      5319282.0000      5023196.5000         -0.0000
  976.0000          0.9818      5233712.0000      5134671.5000          0.0008
  980.0000          0.9858      5166672.0000      5182946.5000         -0.0003
  984.0000          0.9897      5212992.0000      5348364.0000          0.0010
  988.0000          0.9936      5115696.5000      5234866.5000         -0.0008
  992.0000          0.9975      5288669.5000      5242991.0000         -0.0000
  996.0000          1.0013      5465447.0000      5159660.5000         -0.0012
 1000.0000          1.0051      5183884.0000      5173915.5000          0.0011
 1004.0000          1.0090      5417928.0000      5185339.5000         -0.0006
 1008.0000          1.0128      5376061.5000      5117847.5000          0.0022
 1012.0000          1.0166      5350474.0000      5467044.0000         -0.0013
 1016.0000          1.0204      5396560.5000      5422953.0000         -0.0008
 1020.0000          1.0243      5368271.5000      5184135.5000          0.0006
 1024.0000          1.0282      5390689.5000      5441570.5000          0.0005
 1028.0000          1.0320      5358355.5000      5349541.5000         -0.0001
 1032.0000          1.0359      5359316.5000      5347989.0000          0.0003
 1036.0000          1.0398      5253382.5000      5393667.0000         -0.0012
 1040.0000          1.0437      5298701.0000      5408861.0000          0.0002
 1044.0000          1.0476      5068662.5000      5368699.0000          0.0007
 1048.0000          1.0514      4922162.0000      5367008.0000          0.0009
 1052.0000          1.0553      4797920.5000      5419527.0000         -0.0014
 1056.0000          1.0592      4937183.5000      5335919.5000          0.0001
 1060.0000          1.0632      4959847.5000      5323634.0000          0.0001
 1064.0000          1.0671      4945355.0000      5290308.0000         -0.0002
 1068.0000          1.0710      4836898.0000      5226956.0000         -0.0013
 1072.0000          1.0749      4726491.0000      5074737.0000          0.0005
 1076.0000          1.0789      4851163.5000      4965096.5000         -0.0005
 1080.0000          1.0828      4755327.0000      4783653.0000         -0.0007
 1084.0000          1.0867      4890435.0000      4979105.5000         -0.0005
 1088.0000          1.0906      4900395.0000      4825765.0000          0.0020
 1092.0000          1.0946      4956580.0000      5036756.0000         -0.0006
 1096.0000          1.0985      4850476.0000      4896397.5000         -0.0005
 1100.0000          1.1024      4966822.0000      4792018.5000         -0.0007
 1104.0000          1.1063      4880538.0000      4745780.0000          0.0008
 1108.0000          1.1102      4935929.0000      4856493.5000         -0.0004
 1112.0000          1.1142      5187466.0000      4734879.5000          0.0019
 1116.0000          1.1181      4907311.0000      4959342.5000         -0.0024
 1120.0000          1.1220      5062097.0000      4793006.0000          0.0018
 1124.0000          1.1259      5042250.0000      5035448.5000         -0.0013
 1128.0000          1.1299      4904001.0000      4863283.0000          0.0000
 1132.0000          1.1338      4933417.0000      4867827.0000          0.0003
 1136.0000          1.1377      4852767.5000      5021674.5000         -0.0001
 1140.0000          1.1416      4959771.5000      4920385.5000          0.0013
 1144.0000          1.1456      4967888.5000      4898263.0000         -0.0002
 1148.0000          1.1495      4683180.0000      5206527.5000          0.0004
 1152.0000          1.1534      4619584.5000      4932062.5000         -0.0015
 1156.0000          1.1573      4679842.0000      5006245.0000          0.0010
 1160.0000          1.1613      4492527.5000      5084808.5000         -0.0001
 1164.0000          1.1652      4631666.5000      4954467.5000         -0.0006
 1168.0000          1.1691      4510154.5000      4924283.0000          0.0007
 1172.0000          1.1730      4585039.5000      5017240.0000         -0.0004
 1176.0000          1.1770      4553883.5000      4800060.0000          0.0010
 1180.0000          1.1809      4470386.5000      4951069.0000         -0.0007
 1184.0000          1.1849      4097901.5000      4966917.0000         -0.0002
 1188.0000          1.1889      4274730.5000      4724858.5000         -0.0014
 1192.0000          1.1929      4167469.5000      4614170.0000         -0.0003
 1196.0000          1.1969      4216377.5000      4720495.5000         -0.0000
 1200.0000          1.2009      4152730.2500      4485023.5000         -0.0005
 1204.0000          1.2049      4197387.5000      4592585.5000          0.0009
 1208.0000          1.2089      4273707.0000      4649251.0000         -0.0006
 1212.0000          1.2129      4204471.0000      4485815.5000          0.0006
 1216.0000          1.2169      4823312.5000      4573450.0000         -0.0003
 1220.0000          1.2209      4595070.0000      4549807.5000         -0.0004
 1224.0000          1.2249      4435486.5000      4299298.5000         -0.0022
 1228.0000          1.2289      4088022.7500      4150230.0000          0.0021
 1232.0000          1.2329      3981711.0000      4296966.5000         -0.0021
 1236.0000          1.2369      3962136.2500      4165803.0000          0.0014
 1240.0000          1.2409      4145958.0000      4194699.0000         -0.0000
 1244.0000          1.2449      4330171.5000      4172909.5000         -0.0002
 1248.0000          1.2489      4609381.5000      4296703.5000          0.0009
 1252.0000          1.2529      4620436.0000      4122483.2500         -0.0013
 1256.0000          1.2569      4552098.0000      4398707.5000          0.0029
 1260.0000          1.2609      4260742.0000      4874475.5000         -0.0009
 1264.0000          1.2649      4249057.5000      4528692.0000         -0.0018
 1268.0000          1.2689      4281006.5000      4447770.0000         -0.0003
 1272.0000          1.2729      4239046.5000      4083125.7500         -0.0005
 1276.0000          1.2769      4116431.0000      3954392.5000         -0.0004
 1280.0000          1.2809      4066004.2500      3999052.0000          0.0015
 1284.0000          1.2849      4131737.2500      4180659.0000          0.0001
 1288.0000          1.2889      4238184.0000      4352513.5000          0.0013
 1292.0000          1.2929      4221421.5000      4643971.0000          0.0002
 1296.0000          1.2969      4407582.5000      4619349.0000          0.0003
 1300.0000          1.3009      4103408.5000      4576567.0000         -0.0015
 1304.0000          1.3049      3939099.0000      4267041.0000         -0.0003
 1308.0000          1.3089      4071313.2500      4248393.5000         -0.0002
 1312.0000          1.3129      4062570.2500      4280510.0000          0.0001
 1316.0000          1.3169      4072506.2500      4243181.0000          0.0001
 1320.0000          1.3209      4078984.0000      4135547.0000         -0.0011
 1324.0000          1.3249      4157090.5000      4063640.0000          0.0004
 1328.0000          1.3289      4185515.5000      4124466.0000          0.0005
 1332.0000          1.3329      4367216.0000      4242700.0000         -0.0001
 1336.0000          1.3369      4265981.5000      4223396.0000          0.0001
 1340.0000          1.3409      4268442.5000      4442117.0000         -0.0002
 1344.0000          1.3449      4240094.0000      4113306.7500         -0.0006
 1348.0000          1.3489      3970412.0000      3959421.2500          0.0001
 1352.0000          1.3529      4201107.0000      4073608.0000         -0.0001
 1356.0000          1.3569      4281533.5000      4064306.5000         -0.0002
 1360.0000          1.3609      4497763.5000      4070759.5000          0.0004
 1364.0000          1.3649      4175344.0000      4078188.0000         -0.0001
 1368.0000          1.3689      4213454.5000      4157911.7500          0.0003
 1372.0000          1.3729      4279897.5000      4186697.2500          0.0003
 1376.0000          1.3769      4243908.0000      4370599.0000          0.0007
 1380.0000          1.3809      4191508.5000      4268957.0000         -0.0005
 1384.0000          1.3849      4113907.0000      4271495.0000         -0.0002
 1388.0000          1.3889      4137267.2500      4238342.5000          0.0002
 1392.0000          1.3929      4127364.2500      3996678.2500         -0.0001
 1396.0000          1.3969      4124016.0000      4198462.0000          0.0007
 1400.0000          1.4009      4118293.7500      4280877.0000          0.0001
 1404.0000          1.4049      4121398.0000      4525758.0000         -0.0006
 1408.0000          1.4089      4125692.2500      4186403.0000         -0.0006
 1412.0000          1.4129      4140474.7500      4201755.0000          0.0007
 1416.0000          1.4169      4155943.2500      4271032.0000          0.0004
 1420.0000          1.4209      4139567.7500      4258079.5000         -0.0005
 1424.0000          1.4249      4134658.0000      4210337.0000         -0.0004
 1428.0000          1.4289      4082682.0000      4100439.2500          0.0007
 1432.0000          1.4329      4099791.7500      4149510.7500         -0.0008
 1436.0000          1.4369      4162014.2500      4121515.5000          0.0004
 1440.0000          1.4409      4060286.0000      4127783.7500         -0.0003
 1444.0000          1.4449      4107358.2500      4118321.7500          0.0001
 1448.0000          1.4489      4090951.0000      4124466.2500         -0.0002
 1452.0000          1.4529      4057075.7500      4125271.7500          0.0001
 1456.0000          1.4569      4015876.5000      4137832.5000          0.0004
 1460.0000          1.4609      4301028.5000      4159788.5000         -0.0004
 1464.0000          1.4649      4106176.0000      4139442.5000          0.0001
 1468.0000          1.4689      4194650.5000      4139199.5000         -0.0006
 1472.0000          1.4729      4288864.0000      4082109.2500          0.0005
 1476.0000          1.4769      4354215.5000      4099024.7500         -0.0004
 1480.0000          1.4809      4277514.0000      4163376.2500          0.0001
 1484.0000          1.4849      4055425.2500      4061496.0000         -0.0001
 1488.0000          1.4889      4093909.2500      4108433.2500          0.0003
 1492.0000          1.4929      4085742.7500      4088540.0000         -0.0003
 1496.0000          1.4969      4118922.7500      4058768.0000          0.0003
 1500.0000          1.5009      4051036.7500      4028331.7500         -0.0001
 1504.0000          1.5049      3962627.7500      4297705.5000         -0.0007
 1508.0000          1.5089      4051678.2500      4140928.5000          0.0008
 1512.0000          1.5129      3989893.7500      4206390.0000          0.0009
 1516.0000          1.5169      4486903.5000      4282249.0000         -0.0017
 1520.0000          1.5209      4507560.5000      4398802.0000          0.0028
 1524.0000          1.5249      4552717.5000      4245181.0000         -0.0042
 1528.0000          1.5289      4648220.0000      4087225.5000          0.0011
 1532.0000          1.5329      4604231.0000      4091395.7500          0.0008
 1536.0000          1.5369      4692899.5000      4087930.0000          0.0002
 1540.0000          1.5409      4581823.5000      4110649.0000         -0.0007
 1544.0000          1.5449      4894121.5000      4045757.7500         -0.0003
 1548.0000          1.5489      5740797.0000      3971709.2500         -0.0002
 1552.0000          1.5529      4840693.5000      4065664.0000         -0.0002
 1556.0000          1.5569      4767897.5000      4107784.0000          0.0030
 1560.0000          1.5609      4778106.0000      4468859.5000         -0.0002
 1564.0000          1.5649      4808426.5000      4549323.5000          0.0006
 1568.0000          1.5689      4869750.0000      4551576.0000          0.0001
 1572.0000          1.5729      6667726.5000      4649871.5000          0.0007
 1576.0000          1.5769      6831266.0000      4596151.0000         -0.0003
 1580.0000          1.5809      6400484.5000      4702913.5000          0.0000
 1584.0000          1.5849      7346065.0000      4589524.0000          0.0001
 1588.0000          1.5889      7290935.5000      4824319.5000          0.0007
 1592.0000          1.5929      7513224.0000      5343626.0000          0.0021
 1596.0000          1.5970      7034686.5000      5502229.0000         -0.0012
 1600.0000          1.6010      7333482.5000      4854206.0000         -0.0008
 1604.0000          1.6050      7895917.0000      4772128.0000         -0.0007
 1608.0000          1.6090      8702698.0000      4777006.0000          0.0008
 1612.0000          1.6130      7827209.5000      4800825.5000         -0.0007
 1616.0000          1.6170      8170103.0000      4759104.0000         -0.0005
 1620.0000          1.6210      7524148.5000      6589903.5000          0.0045
 1624.0000          1.6250      8298146.5000      6728900.0000          0.0008
 1628.0000          1.6290      8572495.0000      6966614.0000          0.0021
 1632.0000          1.6331      8752236.0000      6525365.5000         -0.0012
 1636.0000          1.6371      8375804.0000      6482922.5000          0.0019
 1640.0000          1.6411      9521566.0000      7236995.0000          0.0040
 1644.0000          1.6451      9735759.0000      7568101.0000         -0.0041
 1648.0000          1.6491      9122837.0000      7334480.5000          0.0004
 1652.0000          1.6531      8762890.0000      7782715.0000         -0.0008
 1656.0000          1.6571      8288486.0000      7057039.0000         -0.0016
 1660.0000          1.6611      9140425.0000      7117793.0000          0.0009
 1664.0000          1.6652      10232969.0000      7284189.5000          0.0018
 1668.0000          1.6692      9949378.0000      7325417.0000         -0.0015
 1672.0000          1.6732      10027570.0000      7732540.5000          0.0016
 1676.0000          1.6772      10356983.0000      8494799.0000          0.0006
 1680.0000          1.6812      10547501.0000      9051739.0000          0.0035
 1684.0000          1.6852      10036013.0000      8105681.0000         -0.0016
 1688.0000          1.6892      9086397.0000      7782917.5000         -0.0014
 1692.0000          1.6932      9614782.0000      8021201.5000         -0.0008
 1696.0000          1.6973      10016976.0000      8282311.0000          0.0037
 1700.0000          1.7013      8614317.0000      7906352.5000         -0.0044
 1704.0000          1.7053      7732965.0000      7446428.0000          0.0006
 1708.0000          1.7093      8144725.0000      8343355.0000          0.0025
 1712.0000          1.7133      6798070.0000      8445401.0000         -0.0006
 1716.0000          1.7173      5506716.0000      8551865.0000          0.0005
 1720.0000          1.7213      5556581.0000      8806544.0000          0.0003
 1724.0000          1.7253      5601147.5000      8842965.0000         -0.0002
 1728.0000          1.7294      5516169.0000      8261567.0000         -0.0012
 1732.0000       -999.2500      6607747.5000      8464622.0000          0.0021
 1736.0000       -999.2500      9861796.0000      9209507.0000          0.0010
 1740.0000       -999.2500      8530124.0000      9741089.0000          0.0013
 1744.0000       -999.2500      9120894.0000      10386777.0000         -0.0017
 1748.0000       -999.2500      10216831.0000      9347849.0000         -0.0011
 1752.0000       -999.2500      10813735.0000      9063392.0000          0.0023
 1756.0000       -999.2500      8875506.0000      9194002.0000         -0.0025
 1760.0000       -999.2500      8766168.0000      8784754.0000         -0.0000
 1764.0000       -999.2500      8419335.0000      8754078.0000         -0.0012
 1768.0000       -999.2500      8721384.0000      8071008.0000         -0.0003
 1772.0000       -999.2500      9039162.0000      8683811.0000          0.0012
 1776.0000       -999.2500      9118782.0000      9028272.0000          0.0013
 1780.0000       -999.2500      9002723.0000      9619304.0000          0.0026
 1784.0000       -999.2500      8629495.0000      10526130.0000         -0.0009
 1788.0000       -999.2500      8978180.0000      9949610.0000          0.0013
 1792.0000       -999.2500      9097862.0000      10262316.0000         -0.0038
 1796.0000       -999.2500      9111990.0000      9805174.0000          0.0032
 1800.0000       -999.2500      9002998.0000      10069803.0000         -0.0013
 1804.0000       -999.2500      8891011.0000      9966874.0000          0.0008
 1808.0000       -999.2500      8965639.0000      10436266.0000          0.0019
 1812.0000       -999.2500      8826591.0000      10336474.0000         -0.0019
 1816.0000       -999.2500      8597141.0000      10148573.0000          0.0017
 1820.0000       -999.2500      8965502.0000      10964335.0000         -0.0010
 1824.0000       -999.2500      8980631.0000      10596788.0000          0.0002
 1828.0000       -999.2500      8945185.0000      9951945.0000         -0.0007
 1832.0000       -999.2500      8989379.0000      9753999.0000         -0.0042
 1836.0000       -999.2500       -999.2500      8629092.0000          0.0013
 1840.0000       -999.2500       -999.2500      9195639.0000          0.0016
 1844.0000       -999.2500       -999.2500      9656264.0000          0.0006
 1848.0000       -999.2500       -999.2500      10285846.0000          0.0003
 1852.0000       -999.2500       -999.2500      9795901.0000         -0.0006
 1856.0000       -999.2500       -999.2500      9043357.0000         -0.0034
 1860.0000       -999.2500       -999.2500      8905228.0000          0.0012
 1864.0000       -999.2500       -999.2500      7673524.0000         -0.0022
 1868.0000       -999.2500       -999.2500      8140024.5000          0.0012
 1872.0000       -999.2500       -999.2500      8426284.0000         -0.0029
 1876.0000       -999.2500       -999.2500      7673231.0000          0.0023
 1880.0000       -999.2500       -999.2500      6464024.0000         -0.0063
 1884.0000       -999.2500       -999.2500      5488336.5000         -0.0010
 1888.0000       -999.2500       -999.2500      5562724.0000          0.0005
 1892.0000       -999.2500       -999.2500      5462686.0000         -0.0003
 1896.0000       -999.2500       -999.2500      5668738.0000          0.0004
 1900.0000       -999.2500       -999.2500      5510130.5000         -0.0003
 1904.0000       -999.2500       -999.2500      7146674.5000          0.0076
 1908.0000       -999.2500       -999.2500      7986232.5000         -0.0008
 1912.0000       -999.2500       -999.2500      13016089.0000          0.0095
 1916.0000       -999.2500       -999.2500      9826160.0000         -0.0122
 1920.0000       -999.2500       -999.2500      8770842.0000          0.0121
 1924.0000       -999.2500       -999.2500      10054376.0000         -0.0084
 1928.0000       -999.2500       -999.2500      9715324.0000          0.0128
 1932.0000       -999.2500       -999.2500      11153431.0000         -0.0155
 1936.0000       -999.2500       -999.2500      12403322.0000          0.0043
 1940.0000       -999.2500       -999.2500      9206073.0000          0.0008
 1944.0000       -999.2500       -999.2500      10410935.0000         -0.0011
 1948.0000       -999.2500       -999.2500      8837326.0000         -0.0006
 1952.0000       -999.2500       -999.2500      8865909.0000          0.0007
 1956.0000       -999.2500       -999.2500      8750591.0000         -0.0003
 1960.0000       -999.2500       -999.2500      8765487.0000         -0.0005
 1964.0000       -999.2500       -999.2500      8873748.0000         -0.0020
 1968.0000       -999.2500       -999.2500      8277406.5000          0.0002
 1972.0000       -999.2500       -999.2500      8327533.5000          0.0022
 1976.0000       -999.2500       -999.2500      9026328.0000          0.0001
 1980.0000       -999.2500       -999.2500      9037181.0000          0.0005
 1984.0000       -999.2500       -999.2500      8966869.0000         -0.0003
 1988.0000       -999.2500       -999.2500      9110626.0000          0.0003
 1992.0000       -999.2500       -999.2500      9145110.0000          0.0002
 1996.0000       -999.2500       -999.2500      9079093.0000         -0.0004
 2000.0000       -999.2500       -999.2500      8956579.0000          0.0003
 2004.0000       -999.2500       -999.2500      9051159.0000         -0.0002
 2008.0000       -999.2500       -999.2500      8947878.0000         -0.0013
 2012.0000       -999.2500       -999.2500      8313760.0000          0.0001
 2016.0000       -999.2500       -999.2500      8932475.0000          0.0011
 2020.0000       -999.2500       -999.2500      9045308.0000          0.0001
 2024.0000       -999.2500       -999.2500      9072696.0000          0.0001
 2028.0000       -999.2500       -999.2500      9135508.0000         -0.0004
 2032.0000       -999.2500       -999.2500      9096135.0000          0.0004
 2036.0000       -999.2500       -999.2500      9112858.0000         -0.0001
 2040.0000       -999.2500       -999.2500      9122127.0000          0.0003
 2044.0000       -999.2500       -999.2500      9187651.0000         -0.0002
 2048.0000       -999.2500       -999.2500      8760304.0000         -0.0002
 2052.0000       -999.2500       -999.2500      8889118.0000         -0.0004
 2056.0000       -999.2500       -999.2500      8892512.0000          0.0002
 2060.0000       -999.2500       -999.2500      8937080.0000          0.0002
 2064.0000       -999.2500       -999.2500      8981939.0000         -0.0000
 2068.0000       -999.2500       -999.2500      9012558.0000          0.0003
 2072.0000       -999.2500       -999.2500      8854480.0000         -0.0014
 2076.0000       -999.2500       -999.2500      8464932.0000          0.0004
 2080.0000       -999.2500       -999.2500      8591557.0000         -0.0004
 2084.0000       -999.2500       -999.2500      8883211.0000          0.0009
 2088.0000       -999.2500       -999.2500      8985708.0000         -0.0000
 2092.0000       -999.2500       -999.2500      8944833.0000          0.0000
 2096.0000       -999.2500       -999.2500      8989474.0000         -0.0000
 2100.0000       -999.2500       -999.2500      8971400.0000          0.0001
 2104.0000       -999.2500       -999.2500      8934456.0000         -0.0001
 2108.0000       -999.2500       -999.2500      8963295.0000         -0.0001
