Well Name               : F03-4
UWI                     : Unknown
Kelly Bushing Elevation : 30 m
Surface Elevation       : 0 m
X : 623256.000000 m  Y : 6082586.000000 m
First Sample at         : 0.150000 ms
Last Sample at          : 2956.000000 ms
Sample Rate             : 4.000000 ms
Number of Samples       : 739

Column 1 : Time ms
Column 2 : Check Shot (Check Shot) - Units : ms (Two Way time)
Column 3 : P-Impedance (P-Impedance) - Units : (m/s)*(g/cc)
Column 4 : Computed Impedance (P-Impedance) - Units : (m/s)*(kg/m3)
Column 5 : Computed Reflectivity (P-Reflectivity) - Units : unitless
    0.1500       -999.2500       -999.2500      4086092.5000          0.0000
    4.1500       -999.2500       -999.2500      4087861.5000          0.0000
    8.1500       -999.2500       -999.2500      4091642.2500          0.0000
   12.1500       -999.2500       -999.2500      4095421.5000          0.0000
   16.1500       -999.2500       -999.2500      4099203.7500          0.0000
   20.1500       -999.2500       -999.2500      4102999.5000          0.0000
   24.1500       -999.2500       -999.2500      4106793.0000          0.0000
   28.1500       -999.2500       -999.2500      4110599.7500          0.0000
   32.1500       -999.2500       -999.2500      4114401.2500          0.0000
   36.1500       -999.2500       -999.2500      4118214.2500          0.0000
   40.1500       -999.2500      4085967.5000      4122025.0000          0.0000
   44.1500          0.0001      4087931.0000      4125856.0000          0.0000
   48.1500          0.0044      4091654.0000      4129669.5000          0.0000
   52.1500          0.0088      4095374.5000      4133511.7500          0.0000
   56.1500          0.0131      4099099.2500      4137334.7500          0.0000
   60.1500          0.0174      4102844.0000      4141190.0000          0.0000
   64.1500          0.0218      4106584.0000      4145033.7500          0.0000
   68.1500          0.0261      4110337.0000      4148887.5000          0.0000
   72.1500          0.0304      4114093.0000      4152730.7500          0.0000
   76.1500          0.0348      4117866.0000      4156606.5000          0.0000
   80.1500          0.0391      4121633.5000      4160462.7500          0.0000
   84.1500          0.0434      4125415.7500      4164343.2500          0.0000
   88.1500          0.0478      4129202.7500      4168208.7500          0.0000
   92.1500          0.0521      4133002.7500      4172096.0000          0.0000
   96.1500          0.0564      4136792.7500      4175978.7500          0.0000
  100.1500          0.0608      4140616.2500      4179874.5000          0.0000
  104.1500          0.0651      4144432.0000      4183765.7500          0.0000
  108.1500          0.0694      4148258.7500      4187670.2500          0.0000
  112.1500          0.0738      4152086.0000      4191575.0000          0.0000
  116.1500          0.0781      4155928.0000      4195493.0000          0.0000
  120.1500          0.0824      4159777.7500      4199405.0000          0.0000
  124.1500          0.0868      4163633.2500      4203331.5000          0.0000
  128.1500          0.0911      4167485.5000      4207256.5000          0.0000
  132.1500          0.0954      4171367.0000      4211192.5000          0.0000
  136.1500          0.0998      4175234.5000      4215129.0000          0.0000
  140.1500          0.1041      4179131.2500      4219073.5000          0.0000
  144.1500          0.1084      4183010.2500      4223017.5000          0.0000
  148.1500          0.1128      4186919.0000      4226974.5000          0.0000
  152.1500          0.1171      4190823.2500      4230933.0000          0.0000
  156.1500          0.1214      4194742.0000      4234892.5000          0.0000
  160.1500          0.1258      4198660.5000      4238864.5000          0.0000
  164.1500          0.1301      4202603.5000      4242836.5000          0.0000
  168.1500          0.1344      4206532.5000      4246820.5000          0.0000
  172.1500          0.1388      4210490.5000      4250803.0000          0.0000
  176.1500          0.1431      4214436.0000      4254796.0000          0.0000
  180.1500          0.1474      4218401.5000      4258786.5000          0.0000
  184.1500          0.1518      4222369.0000      4262797.0000          0.0000
  188.1500          0.1561      4226351.5000      4266797.5000          0.0000
  192.1500          0.1604      4230334.5000      4270812.0000          0.0000
  196.1500          0.1648      4234334.5000      4274824.5000          0.0000
  200.1500          0.1691      4238332.0000      4278850.5000          0.0000
  204.1500          0.1734      4242339.0000      4282875.5000          0.0000
  208.1500          0.1778      4246360.5000      4286914.0000          0.0000
  212.1500          0.1821      4250385.0000      4290940.0000          0.0000
  216.1500          0.1864      4254425.5000      4294993.5000          0.0000
  220.1500          0.1908      4258471.5000      4299036.0000          0.0000
  224.1500          0.1951      4262519.5000      4303102.0000          0.0000
  228.1500          0.1994      4266574.5000      4307148.5000          0.0000
  232.1500          0.2038      4270646.0000      4311226.0000          0.0000
  236.1500          0.2081      4274718.0000      4315288.5000          0.0000
  240.1500          0.2124      4278807.0000      4319376.5000          0.0000
  244.1500          0.2168      4282895.5000      4323446.0000          0.0000
  248.1500          0.2211      4287001.0000      4327544.0000          0.0000
  252.1500          0.2254      4291099.5000      4331624.0000          0.0000
  256.1500          0.2298      4295228.0000      4335736.5000          0.0000
  260.1500          0.2341      4299342.5000      4339831.0000          0.0000
  264.1500          0.2384      4303481.5000      4343942.0000          0.0000
  268.1500          0.2428      4307621.0000      4348054.0000          0.0000
  272.1500          0.2471      4311784.5000      4352179.0000          0.0000
  276.1500          0.2514      4315931.0000      4356302.0000          0.0000
  280.1500          0.2558      4320114.0000      4360438.5000          0.0000
  284.1500          0.2601      4324279.0000      4364569.5000          0.0000
  288.1500          0.2644      4328469.0000      4368711.0000          0.0000
  292.1500          0.2687      4332659.5000      4372865.5000          0.0000
  296.1500          0.2731      4336867.0000      4377022.5000          0.0000
  300.1500          0.2774      4341075.5000      4381177.0000          0.0000
  304.1500          0.2817      4345291.5000      4385345.5000          0.0000
  308.1500          0.2861      4349526.0000      4389514.0000          0.0000
  312.1500          0.2904      4353759.5000      4393694.5000          0.0000
  316.1500          0.2947      4358012.0000      4397875.0000          0.0000
  320.1500          0.2991      4362256.5000      4402057.0000          0.0000
  324.1500          0.3034      4366532.5000      4406254.5000          0.0000
  328.1500          0.3077      4370795.0000      4410455.0000          0.0000
  332.1500          0.3121      4375089.0000      4414662.0000          0.0000
  336.1500          0.3164      4379374.5000      4418868.5000          0.0000
  340.1500          0.3207      4383682.0000      4423088.5000          0.0000
  344.1500          0.3251      4387980.0000      4427305.0000          0.0000
  348.1500          0.3294      4392311.0000      4431542.0000          0.0000
  352.1500          0.3337      4396627.0000      4435764.0000          0.0000
  356.1500          0.3381      4400969.0000      4440014.5000          0.0000
  360.1500          0.3424      4405311.0000      4444254.0000          0.0000
  364.1500          0.3467      4409671.0000      4448515.5000          0.0000
  368.1500          0.3511      4414031.5000      4452767.0000          0.0000
  372.1500          0.3554      4418403.0000      4457033.0000          0.0000
  376.1500          0.3597      4422790.0000      4461291.5000          0.0000
  380.1500          0.3641      4427178.0000      4465579.0000          0.0000
  384.1500          0.3684      4431585.0000      4469848.5000          0.0000
  388.1500          0.3727      4435985.5000      4474146.0000          0.0000
  392.1500          0.3771      4440419.0000      4478426.0000          0.0000
  396.1500          0.3814      4444842.5000      4482732.5000          0.0000
  400.1500          0.3857      4449289.0000      4487032.5000          0.0000
  404.1500          0.3901      4453726.5000      4491345.5000          0.0000
  408.1500          0.3944      4458197.0000      4495655.5000          0.0000
  412.1500          0.3987      4462655.5000      4499992.0000          0.0000
  416.1500          0.4031      4467139.5000      4504308.0000          0.0000
  420.1500          0.4074      4471624.0000      4508655.0000          0.0000
  424.1500          0.4117      4476118.5000      4512983.5000          0.0000
  428.1500          0.4161      4480630.0000      4517332.0000          0.0000
  432.1500          0.4204      4485143.0000      4521682.5000          0.0000
  436.1500          0.4247      4489675.0000      4526046.5000          0.0000
  440.1500          0.4291      4494199.5000      4530405.5000          0.0000
  444.1500          0.4334      4498758.0000      4534778.0000          0.0000
  448.1500          0.4377      4503311.0000      4539151.0000          0.0000
  452.1500          0.4421      4507881.0000      4543537.5000          0.0000
  456.1500          0.4464      4512447.0000      4547924.5000          0.0000
  460.1500          0.4507      4517044.0000      4552315.5000          0.0000
  464.1500          0.4551      4521632.0000      4556718.5000          0.0000
  468.1500          0.4594      4526243.5000      4561131.0000          0.0000
  472.1500          0.4637      4530859.0000      4407548.0000         -0.0011
  476.1500          0.4681      4535482.0000      4287399.0000         -0.0007
  480.1500          0.4724      4540124.0000      4471157.0000          0.0025
  484.1500          0.4766      4544767.0000      4716623.5000         -0.0013
  488.1500          0.4809      4549428.0000      4403840.5000          0.0000
  492.1500          0.4851      4554086.0000      4403840.5000          0.0000
  496.1500          0.4893      4558778.0000      4368873.0000          0.0003
  500.1500          0.4936      4529683.0000      4545099.5000          0.0004
  504.1500          0.4978      4342160.5000      4486295.5000         -0.0006
  508.1500          0.5020      4246788.5000      4376933.0000         -0.0007
  512.1500          0.5063      4732215.5000      4131050.2500         -0.0017
  516.1500          0.5107      4465295.0000      4254196.5000          0.0011
  520.1500          0.5150      4403841.0000      4065266.5000         -0.0015
  524.1500          0.5193      4360215.5000      4436729.5000          0.0042
  528.1500          0.5236      4522109.0000      4583533.0000         -0.0010
  532.1500          0.5280      4501960.5000      4704206.5000          0.0006
  536.1500          0.5323      4384771.5000      4638555.0000         -0.0000
  540.1500          0.5366      4152271.5000      4385258.5000         -0.0019
  544.1500          0.5409      4224443.5000      4145409.5000         -0.0002
  548.1500          0.5452      4083511.5000      4149811.0000          0.0000
  552.1500          0.5494      4361515.0000      4159971.7500          0.0000
  556.1500          0.5536      4585550.5000      4170088.5000          0.0000
  560.1500          0.5577      4701663.5000      4173287.2500         -0.0001
  564.1500          0.5619      4626516.5000      4175735.0000          0.0001
  568.1500          0.5660      4313913.5000      4222437.5000          0.0008
  572.1500          0.5696      4142850.5000      4359420.5000          0.0006
  576.1500          0.5733      4145928.5000      4570319.5000          0.0004
  580.1500          0.5769      4152421.7500      4657803.5000          0.0004
  584.1500          0.5806      4158488.0000      4626546.0000         -0.0016
  588.1500          0.5842      4164794.5000      4649375.0000          0.0018
  592.1500          0.5879      4171251.7500      4760327.0000          0.0002
  596.1500          0.5915      4175032.2500      4867008.0000         -0.0010
  600.1500          0.5952      4174220.0000      4386156.5000         -0.0003
  604.1500          0.5988      4178433.0000      4672939.0000          0.0015
  608.1500          0.6025      4319911.0000      4731972.5000         -0.0002
  612.1500          0.6061      4505137.5000      4421559.0000         -0.0019
  616.1500          0.6098      4663393.0000      4263468.0000         -0.0002
  620.1500          0.6135      4579964.5000      4263187.5000          0.0002
  624.1500          0.6171      4738366.5000      4277094.5000          0.0005
  628.1500          0.6208      4844590.5000      4310021.0000         -0.0015
  632.1500          0.6244      4504445.5000      4337207.0000          0.0014
  636.1500          0.6281      4524891.0000      4387839.0000          0.0015
  640.1500          0.6318      4806907.5000      4722081.0000         -0.0005
  644.1500          0.6354      4590786.0000      4702211.0000         -0.0000
  648.1500          0.6391      4314172.0000      4746998.0000          0.0002
  652.1500          0.6428      4241480.5000      4754025.5000          0.0002
  656.1500          0.6464      4248178.5000      4725143.0000         -0.0001
  660.1500          0.6501      4232551.5000      4716080.0000         -0.0001
  664.1500          0.6537      4352231.5000      4716404.5000         -0.0000
  668.1500          0.6574      4306076.5000      4658737.0000          0.0002
  672.1500          0.6611      4287237.0000      4753027.0000         -0.0000
  676.1500          0.6657      4617739.5000      4687959.0000         -0.0005
  680.1500          0.6706      4705655.5000      4629023.0000         -0.0011
  684.1500          0.6756      4731088.0000      4676407.5000          0.0016
  688.1500          0.6805      4746211.0000      4753557.5000         -0.0003
  692.1500          0.6855      4718820.5000      4806321.0000          0.0006
  696.1500          0.6904      4704623.5000      4792015.5000         -0.0000
  700.1500          0.6950      4704193.5000      4824822.0000          0.0003
  704.1500          0.6995      4705708.5000      4887802.5000         -0.0003
  708.1500          0.7039      4621747.5000      4844261.5000          0.0001
  712.1500          0.7084      4720271.0000      4769141.5000         -0.0020
  716.1500          0.7128      4783217.5000      4653230.5000          0.0012
  720.1500          0.7173      4794811.0000      4582809.5000          0.0003
  724.1500          0.7217      4844771.5000      4824005.0000          0.0004
  728.1500          0.7262      4859878.0000      4888580.0000          0.0003
  732.1500          0.7306      4811061.5000      4800873.0000         -0.0012
  736.1500          0.7351      4633273.5000      4622408.0000          0.0011
  740.1500          0.7395      4625869.0000      4756728.5000         -0.0015
  744.1500          0.7440      4869760.5000      4882400.0000          0.0016
  748.1500          0.7484      4838307.5000      4838210.0000         -0.0025
  752.1500          0.7529      4639511.5000      4406621.0000          0.0001
  756.1500          0.7573      4721817.5000      4784687.5000          0.0021
  760.1500          0.7618      4952025.5000      4902343.5000         -0.0005
  764.1500          0.7662      4545542.5000      4680187.5000         -0.0002
  768.1500          0.7707      4646334.5000      4694023.5000          0.0006
  772.1500          0.7751      4867473.0000      4674870.0000         -0.0027
  776.1500          0.7796      4678368.0000      4674544.0000          0.0034
  780.1500          0.7840      4743656.5000      4923725.0000         -0.0002
  784.1500          0.7885      4494053.5000      4863489.5000         -0.0003
  788.1500          0.7929      4954190.0000      4712048.5000         -0.0004
  792.1500          0.7974      4867490.0000      4679621.5000          0.0006
  796.1500          0.8018      4715008.0000      4990705.5000          0.0003
  800.1500          0.8063      4698643.5000      4950944.0000         -0.0002
  804.1500          0.8107      4993457.5000      4956909.0000         -0.0005
  808.1500          0.8152      4940292.0000      4554246.0000         -0.0023
  812.1500          0.8196      4717094.0000      4958715.5000          0.0030
  816.1500          0.8241      4781582.0000      4850594.5000         -0.0003
  820.1500          0.8285      4900827.0000      4859642.5000         -0.0004
  824.1500          0.8330      4881825.0000      4862405.0000          0.0004
  828.1500          0.8374      4847309.0000      4843085.0000         -0.0001
  832.1500          0.8413      4852713.5000      5008134.0000          0.0001
  836.1500          0.8444      4997338.0000      4963988.5000         -0.0000
  840.1500          0.8475      4954094.5000      4971096.0000          0.0007
  844.1500          0.8506      4953835.5000      5033559.5000         -0.0003
  848.1500          0.8538      5053586.5000      4904258.0000         -0.0001
  852.1500          0.8569      4958424.5000      5095128.0000          0.0005
  856.1500          0.8600      4945454.5000      5063641.5000         -0.0002
  860.1500          0.8631      5105158.5000      5042626.5000          0.0002
  864.1500          0.8662      5061565.5000      5173774.0000          0.0001
  868.1500          0.8693      5043989.5000      5117679.0000          0.0001
  872.1500          0.8724      5144746.5000      5091593.0000         -0.0003
  876.1500          0.8755      5123449.0000      5038469.0000         -0.0001
  880.1500          0.8786      5135642.0000      5057328.5000          0.0001
  884.1500          0.8817      5067416.5000      5037391.5000         -0.0001
  888.1500          0.8849      5034449.0000      5100461.5000          0.0007
  892.1500          0.8885      5060785.5000      4918638.5000         -0.0027
  896.1500          0.8925      5036248.5000      4574686.0000          0.0005
  900.1500          0.8965      5110618.0000      4709686.5000          0.0026
  904.1500          0.9005      4821183.5000      5165153.0000         -0.0007
  908.1500          0.9045      4602995.0000      5072066.0000          0.0000
  912.1500          0.9084      4873332.5000      5023085.5000         -0.0003
  916.1500          0.9124      5109065.5000      4980562.0000         -0.0002
  920.1500          0.9164      5048131.0000      5069098.0000          0.0009
  924.1500          0.9204      4979053.0000      5205634.5000         -0.0023
  928.1500          0.9245      5070649.0000      5070183.5000          0.0006
  932.1500          0.9286      5091402.0000      4738883.5000         -0.0001
  936.1500          0.9327      5023394.5000      4760002.0000          0.0005
  940.1500          0.9367      4725172.0000      5129927.0000          0.0010
  944.1500          0.9408      4929432.5000      5286546.0000          0.0007
  948.1500          0.9449      5264515.0000      4883769.5000         -0.0025
  952.1500          0.9490      4983805.5000      4752339.5000          0.0010
  956.1500          0.9531      4745636.5000      4826836.5000         -0.0010
  960.1500          0.9572      4810134.5000      4862066.5000          0.0011
  964.1500          0.9613      4880529.0000      4923500.5000          0.0002
  968.1500          0.9654      4952600.5000      4942896.0000         -0.0002
  972.1500          0.9695      5044317.0000      5304884.0000          0.0011
  976.1500          0.9736      5244555.5000      5141184.0000         -0.0008
  980.1500          0.9776      5053617.5000      5044050.0000          0.0003
  984.1500          0.9817      5108262.0000      5106816.0000          0.0001
  988.1500          0.9858      5106543.5000      5106607.0000         -0.0003
  992.1500          0.9899      4997873.0000      4983996.0000          0.0001
  996.1500          0.9940      5183179.0000      5157935.5000          0.0006
 1000.1500          0.9982      5237536.0000      5144577.0000         -0.0004
 1004.1500          1.0023      5075650.0000      5368282.0000         -0.0013
 1008.1500          1.0064      5180830.0000      4932077.5000          0.0001
 1012.1500          1.0106      5358080.5000      5258549.0000          0.0016
 1016.1500          1.0147      5245591.5000      5349005.5000          0.0007
 1020.1500          1.0188      5224876.5000      5266585.0000         -0.0008
 1024.1500          1.0230      5291330.5000      5286095.0000         -0.0009
 1028.1500          1.0271      5213636.0000      5202794.0000          0.0007
 1032.1500          1.0312      5358360.5000      5273926.5000         -0.0004
 1036.1500          1.0353      5406088.0000      5234570.0000          0.0006
 1040.1500          1.0394      5433508.0000      5365358.5000          0.0005
 1044.1500          1.0435      5470392.5000      5426543.5000         -0.0002
 1048.1500          1.0476      5242865.5000      5393211.5000          0.0002
 1052.1500          1.0517      5194684.0000      5486234.0000          0.0001
 1056.1500          1.0558      5255983.0000      5415227.5000         -0.0011
 1060.1500          1.0599      4926768.5000      5205066.0000          0.0003
 1064.1500          1.0639      4858664.5000      5188630.0000          0.0000
 1068.1500          1.0680      4760105.0000      5282358.0000          0.0001
 1072.1500          1.0721      4844447.5000      4966407.5000         -0.0010
 1076.1500          1.0761      4798008.5000      4922892.5000          0.0003
 1080.1500          1.0801      4852762.0000      4772317.5000         -0.0008
 1084.1500          1.0842      4768503.0000      4773107.5000          0.0008
 1088.1500          1.0882      4646981.5000      4810572.5000         -0.0012
 1092.1500          1.0923      4718371.0000      4874099.5000          0.0007
 1096.1500          1.0963      4708549.0000      4827722.5000         -0.0005
 1100.1500          1.1004      4783896.5000      4758283.5000         -0.0002
 1104.1500          1.1044      4704956.5000      4640935.5000         -0.0005
 1108.1500          1.1085      4751520.5000      4734626.5000         -0.0002
 1112.1500          1.1125      4678179.0000      4736330.5000          0.0010
 1116.1500          1.1165      4794769.0000      4668652.5000          0.0008
 1120.1500          1.1206      4698623.0000      4802749.0000         -0.0010
 1124.1500          1.1246      4751411.0000      4699266.5000          0.0010
 1128.1500          1.1287      4687443.0000      4751035.5000         -0.0013
 1132.1500          1.1327      4725918.0000      4691775.5000          0.0006
 1136.1500          1.1368      4799043.5000      4777196.0000         -0.0004
 1140.1500          1.1408      4694509.0000      4733663.5000          0.0012
 1144.1500          1.1449      4755255.0000      4751472.5000         -0.0014
 1148.1500          1.1489      4755841.0000      4703150.5000          0.0001
 1152.1500          1.1530      4593236.0000      4719359.0000         -0.0002
 1156.1500          1.1571      4446959.5000      4817581.0000         -0.0000
 1160.1500          1.1612      4413503.0000      4607876.5000          0.0019
 1164.1500          1.1653      4303801.0000      4836577.5000         -0.0014
 1168.1500          1.1694      4272260.5000      4757600.0000         -0.0001
 1172.1500          1.1735      4502354.5000      4681697.5000         -0.0007
 1176.1500          1.1776      4399907.5000      4495001.0000         -0.0010
 1180.1500          1.1817      4169372.5000      4459666.0000         -0.0001
 1184.1500          1.1858      4119301.2500      4339546.0000         -0.0001
 1188.1500          1.1899      4220557.5000      4288274.0000         -0.0003
 1192.1500          1.1940      4448251.5000      4341525.0000          0.0002
 1196.1500          1.1979      4265079.5000      4543132.5000          0.0008
 1200.1500          1.2018      4290840.0000      4284226.5000         -0.0010
 1204.1500          1.2057      4073841.2500      4126055.7500         -0.0005
 1208.1500          1.2096      4275531.0000      4152827.5000          0.0002
 1212.1500          1.2134      4344385.5000      4312700.5000          0.0029
 1216.1500          1.2173      3977568.2500      4416542.5000         -0.0030
 1220.1500          1.2212      4134987.0000      4289552.5000          0.0010
 1224.1500          1.2251      4033212.2500      4220532.5000         -0.0021
 1228.1500          1.2289      3810349.7500      4121157.2500          0.0005
 1232.1500          1.2328      3903821.5000      4402385.0000          0.0029
 1236.1500          1.2367      3901055.5000      4170526.2500         -0.0032
 1240.1500          1.2406      4097114.7500      4013607.0000          0.0012
 1244.1500          1.2445      4032948.7500      4061607.5000         -0.0011
 1248.1500          1.2483      4186395.7500      4025372.5000         -0.0006
 1252.1500          1.2522      4560013.5000      3810059.7500          0.0002
 1256.1500          1.2561      4125039.0000      3881330.2500          0.0004
 1260.1500          1.2600      4091337.5000      4030825.7500          0.0007
 1264.1500          1.2638      4182289.7500      4160349.7500         -0.0004
 1268.1500          1.2677      4296686.0000      3932694.0000          0.0000
 1272.1500          1.2716      4163677.2500      4618620.0000          0.0026
 1276.1500          1.2755      4044214.0000      4283980.0000         -0.0019
 1280.1500          1.2794      4576842.5000      4038803.0000         -0.0008
 1284.1500          1.2832      4689430.0000      4220221.0000          0.0005
 1288.1500          1.2871      4406739.5000      4153066.2500          0.0001
 1292.1500          1.2910      4190959.2500      4339410.5000          0.0004
 1296.1500          1.2949      4458405.0000      4035890.2500         -0.0016
 1300.1500          1.2988      4475289.5000      4292799.0000          0.0027
 1304.1500          1.3026      4451085.0000      4697575.5000          0.0004
 1308.1500          1.3065      4365822.0000      4617692.0000         -0.0005
 1312.1500          1.3104      4592993.5000      4288951.0000         -0.0015
 1316.1500          1.3142      4667585.0000      4266576.5000          0.0016
 1320.1500          1.3181      4685105.0000      4458504.5000         -0.0004
 1324.1500          1.3220      4507318.5000      4485948.0000          0.0003
 1328.1500          1.3259      4417794.0000      4424588.0000         -0.0009
 1332.1500          1.3297      4531680.5000      4390893.0000          0.0010
 1336.1500          1.3336      4366539.5000      4606921.5000          0.0006
 1340.1500          1.3375      4117523.7500      4667766.0000         -0.0000
 1344.1500          1.3414      4029595.7500      4697705.0000         -0.0004
 1348.1500          1.3452      3944809.5000      4544727.0000         -0.0008
 1352.1500          1.3491      3863950.7500      4418695.5000          0.0001
 1356.1500          1.3530      3825699.0000      4508132.0000          0.0006
 1360.1500          1.3568      3807905.2500      4444465.0000         -0.0008
 1364.1500          1.3607      3867886.5000      4158056.0000         -0.0012
 1368.1500          1.3646      3926282.5000      4054164.0000         -0.0004
 1372.1500          1.3685      3900397.0000      3965748.0000         -0.0004
 1376.1500          1.3723      3834745.5000      3880027.2500         -0.0004
 1380.1500          1.3762      4154727.7500      3829635.2500         -0.0002
 1384.1500          1.3801      3827716.0000      3804520.2500          0.0004
 1388.1500          1.3840      3913249.5000      3868047.0000         -0.0000
 1392.1500          1.3878      3808904.5000      3926683.2500          0.0002
 1396.1500          1.3917      3819558.2500      3902339.0000          0.0000
 1400.1500          1.3956      3719040.5000      3827958.7500         -0.0002
 1404.1500          1.3994      3728803.0000      4169693.5000         -0.0004
 1408.1500          1.4033      3761568.0000      3886652.2500          0.0007
 1412.1500          1.4072      3784882.7500      3859495.7500         -0.0007
 1416.1500          1.4111      3722336.0000      3802420.0000          0.0003
 1420.1500          1.4149      3756228.5000      3779939.5000         -0.0008
 1424.1500          1.4188      3745774.2500      3719793.0000          0.0002
 1428.1500          1.4227      3784506.5000      3745557.7500          0.0001
 1432.1500          1.4266      3872747.7500      3786709.5000          0.0004
 1436.1500          1.4304      3846007.0000      3729508.0000         -0.0007
 1440.1500          1.4343      3800719.0000      3751220.5000          0.0002
 1444.1500          1.4382      3701672.0000      3752477.2500         -0.0003
 1448.1500          1.4420      3706950.2500      3777360.0000          0.0006
 1452.1500          1.4459      3688123.0000      3874969.2500          0.0008
 1456.1500          1.4498      3646302.0000      3840583.0000         -0.0008
 1460.1500          1.4537      3696763.2500      3797978.7500         -0.0002
 1464.1500          1.4575      3654208.2500      3683796.5000         -0.0002
 1468.1500          1.4614      3727385.0000      3715691.5000         -0.0003
 1472.1500          1.4653      3703934.0000      3669710.7500         -0.0001
 1476.1500          1.4691      3721950.5000      3666619.7500          0.0001
 1480.1500          1.4730      3709670.5000      3657658.2500          0.0001
 1484.1500          1.4769      3711138.2500      3720968.5000          0.0002
 1488.1500          1.4808      3698505.0000      3705811.2500         -0.0001
 1492.1500          1.4846      3675975.2500      3720866.0000          0.0000
 1496.1500          1.4885      3796215.2500      3710834.0000         -0.0001
 1500.1500          1.4924      3770921.5000      3709027.7500         -0.0001
 1504.1500          1.4963      3832735.5000      3698400.7500          0.0001
 1508.1500          1.5001      3838650.2500      3703296.2500          0.0005
 1512.1500          1.5040      3785111.7500      3788440.2500         -0.0001
 1516.1500          1.5079      3714498.2500      3770124.5000          0.0002
 1520.1500          1.5117      3707560.5000      3884778.7500          0.0001
 1524.1500          1.5156      3630476.2500      3791636.2500         -0.0003
 1528.1500          1.5195      3619863.7500      3737816.5000         -0.0010
 1532.1500          1.5234      3768312.2500      3724669.2500          0.0005
 1536.1500          1.5272      3677892.2500      3645093.5000         -0.0002
 1540.1500          1.5311      3718734.0000      3610969.7500          0.0003
 1544.1500          1.5350      3808503.7500      3764088.2500          0.0006
 1548.1500          1.5389      3860874.7500      3681246.2500         -0.0010
 1552.1500          1.5427      3809450.7500      3728148.7500          0.0007
 1556.1500          1.5466      3703127.2500      3812271.7500         -0.0002
 1560.1500          1.5505      3798769.7500      3884671.7500          0.0007
 1564.1500          1.5543      3734353.2500      3751065.7500         -0.0013
 1568.1500          1.5582      3617090.2500      3746384.2500          0.0009
 1572.1500          1.5621      3391432.0000      3766150.7500         -0.0001
 1576.1500          1.5660      3627211.5000      3671457.7500         -0.0010
 1580.1500          1.5698      3739926.2500      3485238.0000         -0.0017
 1584.1500          1.5737      3662765.0000      3564134.2500          0.0020
 1588.1500          1.5776      3605049.2500      3726486.2500          0.0005
 1592.1500          1.5815      3734086.7500      3668362.2500         -0.0008
 1596.1500          1.5853      3650097.0000      3606356.7500          0.0002
 1600.1500          1.5892      3635038.7500      3732828.5000         -0.0000
 1604.1500          1.5931      3622632.5000      3670872.7500          0.0004
 1608.1500          1.5969      3633685.2500      3601504.5000         -0.0006
 1612.1500          1.6008      3765437.7500      3642403.0000          0.0001
 1616.1500          1.6047      3830977.2500      3690260.7500          0.0006
 1620.1500          1.6086      3796654.2500      3830077.2500          0.0004
 1624.1500          1.6124      3759805.7500      3789062.0000         -0.0001
 1628.1500          1.6163      3671754.2500      3771779.0000          0.0001
 1632.1500          1.6202      3664318.7500      3690162.7500         -0.0007
 1636.1500          1.6240      3640623.2500      3664589.7500         -0.0002
 1640.1500          1.6279      3579391.5000      3637483.2500         -0.0001
 1644.1500          1.6318      3750115.0000      3590132.2500          0.0004
 1648.1500          1.6357      3807174.0000      3779782.5000          0.0006
 1652.1500          1.6395      3702376.5000      3758112.5000         -0.0009
 1656.1500          1.6434      3924629.7500      3799873.0000          0.0016
 1660.1500          1.6473      3886397.7500      3962698.5000         -0.0006
 1664.1500          1.6512      3697460.2500      3763648.0000         -0.0007
 1668.1500          1.6550      3653714.2500      3641321.7500         -0.0001
 1672.1500          1.6589      3832698.2500      3781233.2500          0.0008
 1676.1500          1.6628      4025319.5000      4031376.5000          0.0001
 1680.1500          1.6666      3969538.5000      3967153.0000          0.0004
 1684.1500          1.6705      3886961.5000      3887507.2500         -0.0002
 1688.1500          1.6744      3960137.2500      3938408.5000          0.0007
 1692.1500          1.6783      4243660.0000      4229064.0000          0.0010
 1696.1500          1.6821      4193828.5000      4184242.0000         -0.0001
 1700.1500          1.6860      4099634.5000      4121723.2500         -0.0006
 1704.1500          1.6899      4143432.5000      4154224.0000         -0.0005
 1708.1500          1.6938      4128623.5000      4109633.7500          0.0010
 1712.1500          1.6976      4158350.7500      4194510.0000         -0.0017
 1716.1500          1.7015      4082373.5000      4057266.2500          0.0015
 1720.1500          1.7054      4359303.5000      4348215.5000          0.0008
 1724.1500          1.7092      4104144.0000      4165163.0000         -0.0028
 1728.1500          1.7131      3766869.5000      3770276.0000         -0.0006
 1732.1500          1.7170      3623701.5000      3630852.7500          0.0000
 1736.1500          1.7209      3682289.7500      3679030.0000         -0.0002
 1740.1500          1.7247      3674122.2500      3706253.0000          0.0011
 1744.1500          1.7286      3790785.2500      3751606.7500         -0.0010
 1748.1500          1.7325      3734685.7500      4005268.5000          0.0066
 1752.1500          1.7364      4813926.5000      5090628.0000         -0.0005
 1756.1500          1.7401      4562578.5000      4388491.5000         -0.0030
 1760.1500          1.7421      4142550.0000      4182839.7500          0.0028
 1764.1500          1.7442      4710303.5000      4785765.5000         -0.0010
 1768.1500          1.7462      4658456.0000      4642273.5000         -0.0003
 1772.1500          1.7482      4760126.5000      4769513.5000          0.0006
 1776.1500          1.7502      4787445.0000      4800036.5000         -0.0005
 1780.1500          1.7523      4801774.0000      4775313.5000          0.0006
 1784.1500          1.7543      4743020.5000      4734186.0000          0.0001
 1788.1500          1.7563      4783040.0000      4826746.0000         -0.0003
 1792.1500          1.7583      4689713.0000      4706879.0000         -0.0002
 1796.1500          1.7604      5591558.5000      4948606.5000          0.0039
 1800.1500          1.7624      5853213.5000      5916635.0000          0.0003
 1804.1500          1.7644      4983032.0000      5862454.0000         -0.0035
 1808.1500          1.7664      5241664.0000      4907811.5000          0.0014
 1812.1500          1.7685      4972144.0000      5266424.0000          0.0002
 1816.1500          1.7705      4903960.0000      5113687.0000         -0.0011
 1820.1500          1.7725      4817120.0000      4935645.5000         -0.0004
 1824.1500          1.7761      4905731.5000      4852187.5000         -0.0006
 1828.1500          1.7801       -999.2500      4831442.0000          0.0004
 1832.1500          1.7841       -999.2500      4907949.0000          0.0000
 1836.1500          1.7881       -999.2500       -999.2500       -999.2500
 1840.1500          1.7921       -999.2500       -999.2500       -999.2500
 1844.1500          1.7961       -999.2500       -999.2500       -999.2500
 1848.1500          1.8001       -999.2500       -999.2500       -999.2500
 1852.1500          1.8041       -999.2500       -999.2500       -999.2500
 1856.1500          1.8081       -999.2500       -999.2500       -999.2500
 1860.1500          1.8121       -999.2500       -999.2500       -999.2500
 1864.1500          1.8161       -999.2500       -999.2500       -999.2500
 1868.1500          1.8201       -999.2500       -999.2500       -999.2500
 1872.1500          1.8241       -999.2500       -999.2500       -999.2500
 1876.1500          1.8281       -999.2500       -999.2500       -999.2500
 1880.1500          1.8321       -999.2500       -999.2500       -999.2500
 1884.1500          1.8361       -999.2500       -999.2500       -999.2500
 1888.1500          1.8401       -999.2500       -999.2500       -999.2500
 1892.1500          1.8441       -999.2500       -999.2500       -999.2500
 1896.1500          1.8482       -999.2500       -999.2500       -999.2500
 1900.1500          1.8522       -999.2500       -999.2500       -999.2500
 1904.1500          1.8562       -999.2500       -999.2500       -999.2500
 1908.1500          1.8602       -999.2500       -999.2500       -999.2500
 1912.1500          1.8642       -999.2500       -999.2500       -999.2500
 1916.1500          1.8682       -999.2500       -999.2500       -999.2500
 1920.1500          1.8722       -999.2500       -999.2500       -999.2500
 1924.1500          1.8762       -999.2500       -999.2500       -999.2500
 1928.1500          1.8802       -999.2500       -999.2500       -999.2500
 1932.1500          1.8842       -999.2500       -999.2500       -999.2500
 1936.1500          1.8882       -999.2500       -999.2500       -999.2500
 1940.1500          1.8922       -999.2500       -999.2500       -999.2500
 1944.1500          1.8962       -999.2500       -999.2500       -999.2500
 1948.1500          1.9002       -999.2500       -999.2500       -999.2500
 1952.1500          1.9042       -999.2500       -999.2500       -999.2500
 1956.1500          1.9082       -999.2500       -999.2500       -999.2500
 1960.1500          1.9122       -999.2500       -999.2500       -999.2500
 1964.1500          1.9162       -999.2500       -999.2500       -999.2500
 1968.1500          1.9202       -999.2500       -999.2500       -999.2500
 1972.1500          1.9242       -999.2500       -999.2500       -999.2500
 1976.1500          1.9282       -999.2500       -999.2500       -999.2500
 1980.1500          1.9322       -999.2500       -999.2500       -999.2500
 1984.1500          1.9362       -999.2500       -999.2500       -999.2500
 1988.1500          1.9402       -999.2500       -999.2500       -999.2500
 1992.1500          1.9441       -999.2500       -999.2500       -999.2500
 1996.1500          1.9481       -999.2500       -999.2500       -999.2500
 2000.1500          1.9521       -999.2500       -999.2500       -999.2500
 2004.1500          1.9561       -999.2500       -999.2500       -999.2500
 2008.1500          1.9601       -999.2500       -999.2500       -999.2500
 2012.1500          1.9641       -999.2500       -999.2500       -999.2500
 2016.1500          1.9681       -999.2500       -999.2500       -999.2500
 2020.1500          1.9721       -999.2500       -999.2500       -999.2500
 2024.1500          1.9761       -999.2500       -999.2500       -999.2500
 2028.1500          1.9801       -999.2500       -999.2500       -999.2500
 2032.1500          1.9841       -999.2500       -999.2500       -999.2500
 2036.1500          1.9881       -999.2500       -999.2500       -999.2500
 2040.1500          1.9921       -999.2500       -999.2500       -999.2500
 2044.1500          1.9961       -999.2500       -999.2500       -999.2500
 2048.1499          2.0001       -999.2500       -999.2500       -999.2500
 2052.1499          2.0041       -999.2500       -999.2500       -999.2500
 2056.1499          2.0081       -999.2500       -999.2500       -999.2500
 2060.1499          2.0121       -999.2500       -999.2500       -999.2500
 2064.1499          2.0161       -999.2500       -999.2500       -999.2500
 2068.1499          2.0201       -999.2500       -999.2500       -999.2500
 2072.1499          2.0241       -999.2500       -999.2500       -999.2500
 2076.1499          2.0281       -999.2500       -999.2500       -999.2500
 2080.1499          2.0321       -999.2500       -999.2500       -999.2500
 2084.1499          2.0361       -999.2500       -999.2500       -999.2500
 2088.1499          2.0401       -999.2500       -999.2500       -999.2500
 2092.1499          2.0441       -999.2500       -999.2500       -999.2500
 2096.1499          2.0481       -999.2500       -999.2500       -999.2500
 2100.1499          2.0521       -999.2500       -999.2500       -999.2500
 2104.1499          2.0561       -999.2500       -999.2500       -999.2500
 2108.1499          2.0601       -999.2500       -999.2500       -999.2500
 2112.1499          2.0641       -999.2500       -999.2500       -999.2500
 2116.1499          2.0681       -999.2500       -999.2500       -999.2500
 2120.1499          2.0721       -999.2500       -999.2500       -999.2500
 2124.1499          2.0761       -999.2500       -999.2500       -999.2500
 2128.1499          2.0801       -999.2500       -999.2500       -999.2500
 2132.1499          2.0841       -999.2500       -999.2500       -999.2500
 2136.1499          2.0881       -999.2500       -999.2500       -999.2500
 2140.1499          2.0921       -999.2500       -999.2500       -999.2500
 2144.1499          2.0961       -999.2500       -999.2500       -999.2500
 2148.1499          2.1001       -999.2500       -999.2500       -999.2500
 2152.1499          2.1041       -999.2500       -999.2500       -999.2500
 2156.1499          2.1081       -999.2500       -999.2500       -999.2500
 2160.1499          2.1121       -999.2500       -999.2500       -999.2500
 2164.1499          2.1161       -999.2500       -999.2500       -999.2500
 2168.1499          2.1201       -999.2500       -999.2500       -999.2500
 2172.1499          2.1241       -999.2500       -999.2500       -999.2500
 2176.1499          2.1281       -999.2500       -999.2500       -999.2500
 2180.1499          2.1321       -999.2500       -999.2500       -999.2500
 2184.1499          2.1361       -999.2500       -999.2500       -999.2500
 2188.1499          2.1401       -999.2500       -999.2500       -999.2500
 2192.1499          2.1441       -999.2500       -999.2500       -999.2500
 2196.1499          2.1481       -999.2500       -999.2500       -999.2500
 2200.1499          2.1520       -999.2500       -999.2500       -999.2500
 2204.1499          2.1560       -999.2500       -999.2500       -999.2500
 2208.1499          2.1600       -999.2500       -999.2500       -999.2500
 2212.1499          2.1640       -999.2500       -999.2500       -999.2500
 2216.1499          2.1680       -999.2500       -999.2500       -999.2500
 2220.1499          2.1720       -999.2500       -999.2500       -999.2500
 2224.1499          2.1760       -999.2500       -999.2500       -999.2500
 2228.1499          2.1800       -999.2500       -999.2500       -999.2500
 2232.1499          2.1840       -999.2500       -999.2500       -999.2500
 2236.1499          2.1880       -999.2500       -999.2500       -999.2500
 2240.1499          2.1920       -999.2500       -999.2500       -999.2500
 2244.1499          2.1960       -999.2500       -999.2500       -999.2500
 2248.1499          2.2000       -999.2500       -999.2500       -999.2500
 2252.1499          2.2040       -999.2500       -999.2500       -999.2500
 2256.1499          2.2080       -999.2500       -999.2500       -999.2500
 2260.1499          2.2120       -999.2500       -999.2500       -999.2500
 2264.1499          2.2160       -999.2500       -999.2500       -999.2500
 2268.1499          2.2200       -999.2500       -999.2500       -999.2500
 2272.1499          2.2240       -999.2500       -999.2500       -999.2500
 2276.1499          2.2280       -999.2500       -999.2500       -999.2500
 2280.1499          2.2320       -999.2500       -999.2500       -999.2500
 2284.1499          2.2360       -999.2500       -999.2500       -999.2500
 2288.1499          2.2400       -999.2500       -999.2500       -999.2500
 2292.1499          2.2440       -999.2500       -999.2500       -999.2500
 2296.1499          2.2480       -999.2500       -999.2500       -999.2500
 2300.1499          2.2520       -999.2500       -999.2500       -999.2500
 2304.1499          2.2560       -999.2500       -999.2500       -999.2500
 2308.1499          2.2600       -999.2500       -999.2500       -999.2500
 2312.1499          2.2640       -999.2500       -999.2500       -999.2500
 2316.1499          2.2680       -999.2500       -999.2500       -999.2500
 2320.1499          2.2720       -999.2500       -999.2500       -999.2500
 2324.1499          2.2760       -999.2500       -999.2500       -999.2500
 2328.1499          2.2800       -999.2500       -999.2500       -999.2500
 2332.1499          2.2840       -999.2500       -999.2500       -999.2500
 2336.1499          2.2880       -999.2500       -999.2500       -999.2500
 2340.1499          2.2920       -999.2500       -999.2500       -999.2500
 2344.1499          2.2960       -999.2500       -999.2500       -999.2500
 2348.1499          2.3000       -999.2500       -999.2500       -999.2500
 2352.1499          2.3040       -999.2500       -999.2500       -999.2500
 2356.1499          2.3080       -999.2500       -999.2500       -999.2500
 2360.1499          2.3120       -999.2500       -999.2500       -999.2500
 2364.1499          2.3160       -999.2500       -999.2500       -999.2500
 2368.1499          2.3200       -999.2500       -999.2500       -999.2500
 2372.1499          2.3240       -999.2500       -999.2500       -999.2500
 2376.1499          2.3280       -999.2500       -999.2500       -999.2500
 2380.1499          2.3320       -999.2500       -999.2500       -999.2500
 2384.1499          2.3360       -999.2500       -999.2500       -999.2500
 2388.1499          2.3400       -999.2500       -999.2500       -999.2500
 2392.1499          2.3440       -999.2500       -999.2500       -999.2500
 2396.1499          2.3480       -999.2500       -999.2500       -999.2500
 2400.1499          2.3520       -999.2500       -999.2500       -999.2500
 2404.1499          2.3560       -999.2500       -999.2500       -999.2500
 2408.1499          2.3600       -999.2500       -999.2500       -999.2500
 2412.1499          2.3640       -999.2500       -999.2500       -999.2500
 2416.1499          2.3680       -999.2500       -999.2500       -999.2500
 2420.1499          2.3720       -999.2500       -999.2500       -999.2500
 2424.1499          2.3760       -999.2500       -999.2500       -999.2500
 2428.1499          2.3800       -999.2500       -999.2500       -999.2500
 2432.1499          2.3840       -999.2500       -999.2500       -999.2500
 2436.1499          2.3880       -999.2500       -999.2500       -999.2500
 2440.1499          2.3920       -999.2500       -999.2500       -999.2500
 2444.1499          2.3960       -999.2500       -999.2500       -999.2500
 2448.1499          2.4000       -999.2500       -999.2500       -999.2500
 2452.1499          2.4040       -999.2500       -999.2500       -999.2500
 2456.1499          2.4080       -999.2500       -999.2500       -999.2500
 2460.1499          2.4120       -999.2500       -999.2500       -999.2500
 2464.1499          2.4160       -999.2500       -999.2500       -999.2500
 2468.1499          2.4200       -999.2500       -999.2500       -999.2500
 2472.1499          2.4241       -999.2500       -999.2500       -999.2500
 2476.1499          2.4281       -999.2500       -999.2500       -999.2500
 2480.1499          2.4321       -999.2500       -999.2500       -999.2500
 2484.1499          2.4361       -999.2500       -999.2500       -999.2500
 2488.1499          2.4401       -999.2500       -999.2500       -999.2500
 2492.1499          2.4441       -999.2500       -999.2500       -999.2500
 2496.1499          2.4481       -999.2500       -999.2500       -999.2500
 2500.1499          2.4521       -999.2500       -999.2500       -999.2500
 2504.1499          2.4561       -999.2500       -999.2500       -999.2500
 2508.1499          2.4601       -999.2500       -999.2500       -999.2500
 2512.1499          2.4641       -999.2500       -999.2500       -999.2500
 2516.1499          2.4681       -999.2500       -999.2500       -999.2500
 2520.1499          2.4721       -999.2500       -999.2500       -999.2500
 2524.1499          2.4761       -999.2500       -999.2500       -999.2500
 2528.1499          2.4801       -999.2500       -999.2500       -999.2500
 2532.1499          2.4841       -999.2500       -999.2500       -999.2500
 2536.1499          2.4881       -999.2500       -999.2500       -999.2500
 2540.1499          2.4921       -999.2500       -999.2500       -999.2500
 2544.1499          2.4961       -999.2500       -999.2500       -999.2500
 2548.1499          2.5001       -999.2500       -999.2500       -999.2500
 2552.1499          2.5041       -999.2500       -999.2500       -999.2500
 2556.1499          2.5081       -999.2500       -999.2500       -999.2500
 2560.1499          2.5121       -999.2500       -999.2500       -999.2500
 2564.1499          2.5161       -999.2500       -999.2500       -999.2500
 2568.1499          2.5201       -999.2500       -999.2500       -999.2500
 2572.1499          2.5241       -999.2500       -999.2500       -999.2500
 2576.1499          2.5281       -999.2500       -999.2500       -999.2500
 2580.1499          2.5321       -999.2500       -999.2500       -999.2500
 2584.1499          2.5361       -999.2500       -999.2500       -999.2500
 2588.1499          2.5401       -999.2500       -999.2500       -999.2500
 2592.1499          2.5441       -999.2500       -999.2500       -999.2500
 2596.1499          2.5481       -999.2500       -999.2500       -999.2500
 2600.1499          2.5521       -999.2500       -999.2500       -999.2500
 2604.1499          2.5561       -999.2500       -999.2500       -999.2500
 2608.1499          2.5600       -999.2500       -999.2500       -999.2500
 2612.1499          2.5640       -999.2500       -999.2500       -999.2500
 2616.1499          2.5680       -999.2500       -999.2500       -999.2500
 2620.1499          2.5720       -999.2500       -999.2500       -999.2500
 2624.1499          2.5759       -999.2500       -999.2500       -999.2500
 2628.1499          2.5799       -999.2500       -999.2500       -999.2500
 2632.1499          2.5839       -999.2500       -999.2500       -999.2500
 2636.1499          2.5879       -999.2500       -999.2500       -999.2500
 2640.1499          2.5918       -999.2500       -999.2500       -999.2500
 2644.1499          2.5958       -999.2500       -999.2500       -999.2500
 2648.1499          2.5998       -999.2500       -999.2500       -999.2500
 2652.1499          2.6038       -999.2500       -999.2500       -999.2500
 2656.1499          2.6077       -999.2500       -999.2500       -999.2500
 2660.1499          2.6117       -999.2500       -999.2500       -999.2500
 2664.1499          2.6157       -999.2500       -999.2500       -999.2500
 2668.1499          2.6197       -999.2500       -999.2500       -999.2500
 2672.1499          2.6237       -999.2500       -999.2500       -999.2500
 2676.1499          2.6277       -999.2500       -999.2500       -999.2500
 2680.1499          2.6318       -999.2500       -999.2500       -999.2500
 2684.1499          2.6358       -999.2500       -999.2500       -999.2500
 2688.1499          2.6398       -999.2500       -999.2500       -999.2500
 2692.1499          2.6439       -999.2500       -999.2500       -999.2500
 2696.1499          2.6479       -999.2500       -999.2500       -999.2500
 2700.1499          2.6519       -999.2500       -999.2500       -999.2500
 2704.1499          2.6559       -999.2500       -999.2500       -999.2500
 2708.1499          2.6600       -999.2500       -999.2500       -999.2500
 2712.1499          2.6640       -999.2500       -999.2500       -999.2500
 2716.1499          2.6680       -999.2500       -999.2500       -999.2500
 2720.1499          2.6721       -999.2500       -999.2500       -999.2500
 2724.1499          2.6761       -999.2500       -999.2500       -999.2500
 2728.1499          2.6801       -999.2500       -999.2500       -999.2500
 2732.1499          2.6842       -999.2500       -999.2500       -999.2500
 2736.1499          2.6882       -999.2500       -999.2500       -999.2500
 2740.1499          2.6921       -999.2500       -999.2500       -999.2500
 2744.1499          2.6960       -999.2500       -999.2500       -999.2500
 2748.1499          2.6999       -999.2500       -999.2500       -999.2500
 2752.1499          2.7038       -999.2500       -999.2500       -999.2500
 2756.1499          2.7077       -999.2500       -999.2500       -999.2500
 2760.1499          2.7116       -999.2500       -999.2500       -999.2500
 2764.1499          2.7155       -999.2500       -999.2500       -999.2500
 2768.1499          2.7194       -999.2500       -999.2500       -999.2500
 2772.1499          2.7233       -999.2500       -999.2500       -999.2500
 2776.1499          2.7273       -999.2500       -999.2500       -999.2500
 2780.1499          2.7313       -999.2500       -999.2500       -999.2500
 2784.1499          2.7354       -999.2500       -999.2500       -999.2500
 2788.1499          2.7394       -999.2500       -999.2500       -999.2500
 2792.1499          2.7434       -999.2500       -999.2500       -999.2500
 2796.1499          2.7474       -999.2500       -999.2500       -999.2500
 2800.1499          2.7514       -999.2500       -999.2500       -999.2500
 2804.1499          2.7554       -999.2500       -999.2500       -999.2500
 2808.1499          2.7594       -999.2500       -999.2500       -999.2500
 2812.1499          2.7635       -999.2500       -999.2500       -999.2500
 2816.1499          2.7675       -999.2500       -999.2500       -999.2500
 2820.1499          2.7715       -999.2500       -999.2500       -999.2500
 2824.1499          2.7756       -999.2500       -999.2500       -999.2500
 2828.1499          2.7796       -999.2500       -999.2500       -999.2500
 2832.1499          2.7836       -999.2500       -999.2500       -999.2500
 2836.1499          2.7876       -999.2500       -999.2500       -999.2500
 2840.1499          2.7916       -999.2500       -999.2500       -999.2500
 2844.1499          2.7956       -999.2500       -999.2500       -999.2500
 2848.1499          2.7996       -999.2500       -999.2500       -999.2500
 2852.1499          2.8036       -999.2500       -999.2500       -999.2500
 2856.1499          2.8076       -999.2500       -999.2500       -999.2500
 2860.1499          2.8116       -999.2500       -999.2500       -999.2500
 2864.1499          2.8156       -999.2500       -999.2500       -999.2500
 2868.1499          2.8196       -999.2500       -999.2500       -999.2500
 2872.1499          2.8236       -999.2500       -999.2500       -999.2500
 2876.1499          2.8276       -999.2500       -999.2500       -999.2500
 2880.1499          2.8316       -999.2500       -999.2500       -999.2500
 2884.1499          2.8356       -999.2500       -999.2500       -999.2500
 2888.1499          2.8396       -999.2500       -999.2500       -999.2500
 2892.1499          2.8436       -999.2500       -999.2500       -999.2500
 2896.1499          2.8476       -999.2500       -999.2500       -999.2500
 2900.1499          2.8516       -999.2500       -999.2500       -999.2500
 2904.1499          2.8556       -999.2500       -999.2500       -999.2500
 2908.1499          2.8596       -999.2500       -999.2500       -999.2500
 2912.1499          2.8636       -999.2500       -999.2500       -999.2500
 2916.1499          2.8676       -999.2500       -999.2500       -999.2500
 2920.1499          2.8716       -999.2500       -999.2500       -999.2500
 2924.1499          2.8756       -999.2500       -999.2500       -999.2500
 2928.1499          2.8796       -999.2500       -999.2500       -999.2500
 2932.1499          2.8836       -999.2500       -999.2500       -999.2500
 2936.1499          2.8877       -999.2500       -999.2500       -999.2500
 2940.1499          2.8917       -999.2500       -999.2500       -999.2500
 2944.1499          2.8957       -999.2500       -999.2500       -999.2500
 2948.1499          2.8997       -999.2500       -999.2500       -999.2500
 2952.1499          2.9037       -999.2500       -999.2500       -999.2500
